
/begin_header
/missing=-999
/delimiter=space
!
!Total and Spectral Solar Irradiance Sensor-1 (TSIS-1) Hybrid Solar Reference Spectrum (HSRS)
!
!Source: https://lasp.colorado.edu/lisird/data/tsis1_hsrs
!
!Reference: Coddington, O. M., Richard, E. C., Harber, D., Pilewskie, P., Woods, T. N., Chance, K., et al. (2021). The 
!TSIS-1 hybrid solar reference spectrum. Geophysical Research Letters, 48, e2020GL091709. https://doi.org/10.1029/2020GL091709
!
/fields=wavelength,irradiance
/units=nm,mW/cm^2/um
/end_header
202.00 0.793421
203.00 0.825275
204.00 0.934870
205.00 1.01604
206.00 1.02340
207.00 1.12075
208.00 1.29505
209.00 1.70961
210.00 2.34726
211.00 2.85841
212.00 3.38019
213.00 2.98988
214.00 3.63487
215.00 3.80811
216.00 3.29880
217.00 3.10206
218.00 4.07636
219.00 4.29708
220.00 4.78458
221.00 3.93478
222.00 4.26638
223.00 5.40437
224.00 6.02168
225.00 5.48045
226.00 4.48752
227.00 3.39076
228.00 4.67579
229.00 4.84640
230.00 4.52458
231.00 5.06138
232.00 4.98640
233.00 4.71771
234.00 3.93797
235.00 4.31525
236.00 4.83372
237.00 4.74957
238.00 4.24244
239.00 4.31743
240.00 3.96990
241.00 3.84252
242.00 5.99181
243.00 6.58758
244.00 6.19358
245.00 5.25918
246.00 4.72799
247.00 5.15814
248.00 4.92592
249.00 4.20750
250.00 5.94584
251.00 5.33512
252.00 3.97410
253.00 4.31610
254.00 5.30123
255.00 6.44646
256.00 8.43130
257.00 11.5722
258.00 12.7701
259.00 11.6126
260.00 8.55706
261.00 7.95589
262.00 9.96652
263.00 10.3695
264.00 22.8674
265.00 23.1127
266.00 25.6358
267.00 24.3207
268.00 24.6272
269.00 23.7151
270.00 25.6405
271.00 25.7078
272.00 18.8436
273.00 21.9706
274.00 14.9274
275.00 14.1550
276.00 21.7652
277.00 25.1731
278.00 19.2394
279.00 12.0601
280.00 7.51158
281.00 14.4193
282.00 26.0084
283.00 31.4334
284.00 29.5889
285.00 15.7866
286.00 24.7291
287.00 35.0950
288.00 29.3162
289.00 39.3753
290.00 56.3198
291.00 59.8267
292.00 55.3323
293.00 53.0420
294.00 51.2506
295.00 51.5982
296.00 56.4975
297.00 45.5734
298.00 51.9905
299.00 48.0941
300.00 43.4808
301.00 45.2318
302.00 42.6106
303.00 60.8616
304.00 60.2198
305.00 63.8780
306.00 55.4159
307.00 61.0367
308.00 64.1679
309.00 57.4133
310.00 51.2798
311.00 77.0407
312.00 67.8540
313.00 68.8222
314.00 72.2683
315.00 67.9628
316.00 57.6365
317.00 76.3082
318.00 69.5022
319.00 69.5685
320.00 78.2351
321.00 74.6949
322.00 73.1419
323.00 64.2728
324.00 73.1384
325.00 79.9047
326.00 98.6086
327.00 98.4251
328.00 94.0803
329.00 97.6951
330.00 110.054
331.00 97.2937
332.00 97.5450
333.00 95.1329
334.00 93.0133
335.00 98.7311
336.00 86.2226
337.00 81.2738
338.00 91.0544
339.00 95.5541
340.00 105.054
341.00 95.9361
342.00 98.5431
343.00 102.918
344.00 83.0821
345.00 91.1420
346.00 91.9915
347.00 96.9370
348.00 90.5678
349.00 89.8331
350.00 100.047
351.00 103.522
352.00 98.2484
353.00 95.9963
354.00 112.054
355.00 113.146
356.00 104.277
357.00 84.0502
358.00 78.0920
359.00 83.6656
360.00 112.709
361.00 91.4983
362.00 93.4391
363.00 106.542
364.00 107.328
365.00 104.606
366.00 129.043
367.00 123.621
368.00 115.486
369.00 117.561
370.00 128.276
371.00 114.724
372.00 110.902
373.00 105.715
374.00 92.9400
375.00 92.5914
376.00 111.405
377.00 116.017
378.00 140.984
379.00 120.927
380.00 110.599
381.00 126.761
382.00 94.9150
383.00 72.8965
384.00 78.6718
385.00 108.917
386.00 97.0494
387.00 102.820
388.00 100.816
389.00 104.797
390.00 125.177
391.00 132.526
392.00 125.536
393.00 72.2749
394.00 75.4598
395.00 125.905
396.00 117.748
397.00 66.4623
398.00 133.843
399.00 161.448
400.00 167.061
401.00 170.267
402.00 178.300
403.00 172.018
404.00 175.055
405.00 168.229
406.00 164.383
407.00 164.587
408.00 169.426
409.00 185.455
410.00 158.609
411.00 174.641
412.00 186.879
413.00 178.052
414.00 182.671
415.00 178.174
416.00 181.352
417.00 179.489
418.00 172.561
419.00 175.294
420.00 169.471
421.00 185.861
422.00 180.713
423.00 165.674
424.00 174.204
425.00 172.033
426.00 170.430
427.00 165.821
428.00 167.713
429.00 158.551
430.00 133.185
431.00 124.661
432.00 179.758
433.00 174.594
434.00 159.198
435.00 176.730
436.00 187.014
437.00 188.180
438.00 173.181
439.00 169.042
440.00 182.134
441.00 184.546
442.00 196.385
443.00 197.173
444.00 197.090
445.00 199.970
446.00 183.925
447.00 198.296
448.00 204.276
449.00 203.290
450.00 208.708
451.00 217.995
452.00 209.993
453.00 192.355
454.00 204.609
455.00 201.224
456.00 209.585
457.00 211.306
458.00 207.645
459.00 204.915
460.00 203.548
461.00 210.905
462.00 211.405
463.00 212.414
464.00 206.634
465.00 201.957
466.00 208.380
467.00 197.493
468.00 204.607
469.00 206.904
470.00 201.020
471.00 198.527
472.00 211.268
473.00 204.179
474.00 206.647
475.00 211.172
476.00 205.825
477.00 205.877
478.00 214.211
479.00 207.532
480.00 211.442
481.00 208.948
482.00 212.769
483.00 207.479
484.00 203.868
485.00 201.056
486.00 166.956
487.00 179.348
488.00 196.471
489.00 191.988
490.00 208.156
491.00 202.390
492.00 190.060
493.00 201.436
494.00 198.128
495.00 207.489
496.00 199.412
497.00 203.681
498.00 197.511
499.00 196.450
500.00 196.575
501.00 188.784
502.00 187.552
503.00 197.003
504.00 190.435
505.00 196.939
506.00 205.146
507.00 198.341
508.00 191.909
509.00 200.528
510.00 195.170
511.00 196.057
512.00 200.442
513.00 190.639
514.00 187.231
515.00 189.185
516.00 191.092
517.00 159.980
518.00 176.209
519.00 176.626
520.00 188.909
521.00 187.250
522.00 192.294
523.00 183.430
524.00 195.506
525.00 194.948
526.00 191.084
527.00 170.359
528.00 188.361
529.00 198.744
530.00 192.327
531.00 200.705
532.00 195.097
533.00 182.811
534.00 191.531
535.00 193.325
536.00 199.259
537.00 186.057
538.00 193.832
539.00 191.747
540.00 184.857
541.00 182.749
542.00 190.798
543.00 187.883
544.00 192.359
545.00 190.711
546.00 191.203
547.00 191.077
548.00 185.557
549.00 191.196
550.00 190.631
551.00 188.483
552.00 191.639
553.00 186.741
554.00 190.633
555.00 192.586
556.00 189.775
557.00 184.647
558.00 186.840
559.00 178.607
560.00 181.513
561.00 189.408
562.00 183.032
563.00 187.330
564.00 185.257
565.00 186.779
566.00 180.192
567.00 186.389
568.00 186.866
569.00 183.345
570.00 185.258
571.00 177.593
572.00 186.696
573.00 189.359
574.00 189.173
575.00 185.812
576.00 184.098
577.00 187.181
578.00 183.217
579.00 181.675
580.00 184.933
581.00 184.163
582.00 185.449
583.00 186.602
584.00 185.938
585.00 183.880
586.00 178.432
587.00 183.612
588.00 183.704
589.00 167.667
590.00 171.023
591.00 181.536
592.00 181.561
593.00 180.451
594.00 181.513
595.00 179.440
596.00 180.274
597.00 181.573
598.00 178.420
599.00 177.594
600.00 177.939
601.00 175.188
602.00 173.197
603.00 176.423
604.00 178.711
605.00 178.164
606.00 176.495
607.00 176.754
608.00 174.806
609.00 173.384
610.00 172.121
611.00 172.373
612.00 171.735
613.00 170.955
614.00 166.737
615.00 170.649
616.00 165.270
617.00 163.931
618.00 169.824
619.00 168.936
620.00 170.718
621.00 171.462
622.00 167.684
623.00 166.936
624.00 166.297
625.00 163.940
626.00 163.811
627.00 168.192
628.00 168.073
629.00 168.317
630.00 164.867
631.00 165.872
632.00 161.730
633.00 165.715
634.00 162.404
635.00 164.899
636.00 162.396
637.00 164.108
638.00 165.147
639.00 164.444
640.00 160.408
641.00 159.769
642.00 159.780
643.00 161.714
644.00 160.495
645.00 160.435
646.00 159.123
647.00 159.777
648.00 160.783
649.00 158.940
650.00 153.016
651.00 160.746
652.00 158.933
653.00 158.871
654.00 158.862
655.00 155.077
656.00 135.649
657.00 137.644
658.00 153.971
659.00 154.666
660.00 154.678
661.00 155.601
662.00 157.166
663.00 155.415
664.00 154.014
665.00 155.572
666.00 155.181
667.00 154.157
668.00 153.447
669.00 155.262
670.00 153.380
671.00 152.727
672.00 150.482
673.00 152.530
674.00 152.260
675.00 151.014
676.00 151.903
677.00 150.779
678.00 151.516
679.00 150.616
680.00 150.183
681.00 149.650
682.00 149.926
683.00 149.356
684.00 146.606
685.00 147.533
686.00 146.447
687.00 148.451
688.00 147.297
689.00 147.890
690.00 147.596
691.00 146.754
692.00 145.161
693.00 145.607
694.00 146.055
695.00 144.595
696.00 145.252
697.00 144.848
698.00 141.225
699.00 144.080
700.00 142.516
701.00 140.601
702.00 139.508
703.00 140.606
704.00 140.860
705.00 142.493
706.00 141.005
707.00 140.468
708.00 141.223
709.00 138.718
710.00 140.045
711.00 139.471
712.00 138.022
713.00 137.453
714.00 138.454
715.00 136.205
716.00 137.302
717.00 136.274
718.00 135.978
719.00 133.405
720.00 134.676
721.00 133.465
722.00 134.141
723.00 134.455
724.00 134.809
725.00 134.394
726.00 134.023
727.00 134.253
728.00 133.221
729.00 129.538
730.00 132.537
731.00 131.652
732.00 132.363
733.00 130.914
734.00 132.779
735.00 131.462
736.00 130.123
737.00 130.805
738.00 130.462
739.00 126.405
740.00 128.662
741.00 126.460
742.00 125.950
743.00 128.357
744.00 128.437
745.00 126.971
746.00 128.295
747.00 128.333
748.00 127.792
749.00 127.054
750.00 125.968
751.00 125.186
752.00 126.174
753.00 125.287
754.00 126.567
755.00 125.673
756.00 124.695
757.00 124.521
758.00 124.614
759.00 123.334
760.00 124.902
761.00 124.226
762.00 121.905
763.00 124.233
764.00 124.154
765.00 123.519
766.00 118.303
767.00 119.465
768.00 122.234
769.00 121.077
770.00 120.059
771.00 120.550
772.00 119.364
773.00 120.020
774.00 120.394
775.00 117.612
776.00 120.160
777.00 119.819
778.00 117.997
779.00 118.856
780.00 118.087
781.00 118.027
782.00 119.087
783.00 117.846
784.00 116.831
785.00 117.540
786.00 117.613
787.00 117.485
788.00 116.791
789.00 116.993
790.00 116.513
791.00 115.852
792.00 114.275
793.00 113.552
794.00 111.494
795.00 112.171
796.00 114.453
797.00 114.473
798.00 114.365
799.00 113.928
800.00 111.743
801.00 113.171
802.00 113.296
803.00 111.562
804.00 112.446
805.00 109.756
806.00 111.797
807.00 111.396
808.00 110.520
809.00 109.541
810.00 108.974
811.00 110.546
812.00 110.513
813.00 110.344
814.00 110.121
815.00 109.601
816.00 109.607
817.00 109.247
818.00 108.042
819.00 106.468
820.00 105.082
821.00 106.391
822.00 104.955
823.00 106.944
824.00 106.755
825.00 106.293
826.00 106.946
827.00 106.583
828.00 106.409
829.00 106.127
830.00 105.607
831.00 104.669
832.00 105.400
833.00 102.524
834.00 102.207
835.00 103.102
836.00 104.097
837.00 103.735
838.00 103.801
839.00 102.074
840.00 103.462
841.00 103.412
842.00 102.697
843.00 102.138
844.00 100.793
845.00 101.385
846.00 102.606
847.00 100.725
848.00 101.741
849.00 100.987
850.00 90.6822
851.00 99.2344
852.00 98.5891
853.00 97.7271
854.00 81.7060
855.00 84.9734
856.00 96.9577
857.00 99.3270
858.00 99.2576
859.00 98.8384
860.00 97.9962
861.00 98.0521
862.00 97.7054
863.00 98.5237
864.00 98.3020
865.00 95.9562
866.00 85.3705
867.00 86.5253
868.00 94.8770
869.00 94.1207
870.00 95.9210
871.00 95.5772
872.00 95.2497
873.00 95.1416
874.00 93.7594
875.00 93.7860
876.00 93.7381
877.00 94.2000
878.00 94.4394
879.00 94.0195
880.00 93.5019
881.00 89.7221
882.00 94.2120
883.00 93.4748
884.00 93.2804
885.00 93.4493
886.00 92.2138
887.00 90.1622
888.00 92.4759
889.00 92.8153
890.00 92.5396
891.00 92.3261
892.00 91.6103
893.00 90.5147
894.00 92.0891
895.00 90.6394
896.00 92.0098
897.00 91.1000
898.00 90.6819
899.00 90.8917
900.00 89.4080
901.00 86.7597
902.00 85.7906
903.00 88.6165
904.00 89.9273
905.00 89.8457
906.00 88.5340
907.00 88.6068
908.00 87.9093
909.00 86.4488
910.00 86.9624
911.00 87.9359
912.00 87.2329
913.00 88.5719
914.00 88.0476
915.00 86.9722
916.00 87.3673
917.00 86.7673
918.00 86.6087
919.00 86.8019
920.00 86.2404
921.00 84.5057
922.00 83.1629
923.00 81.6875
924.00 83.2855
925.00 83.9291
926.00 81.9352
927.00 84.7561
928.00 85.0378
929.00 84.3470
930.00 84.5245
931.00 84.3688
932.00 83.9744
933.00 84.3039
934.00 84.1357
935.00 83.6959
936.00 83.1771
937.00 83.3166
938.00 83.1462
939.00 82.8782
940.00 82.2077
941.00 79.9050
942.00 79.3877
943.00 81.3888
944.00 80.0834
945.00 80.7933
946.00 81.3028
947.00 81.6750
948.00 81.7077
949.00 81.5355
950.00 81.4331
951.00 80.8034
952.00 80.2767
953.00 79.8537
954.00 78.6069
955.00 75.3923
956.00 78.8736
957.00 79.0656
958.00 79.3916
959.00 79.6737
960.00 79.1590
961.00 79.0465
962.00 78.7141
963.00 78.0201
964.00 78.0301
965.00 78.3370
966.00 76.8821
967.00 78.1352
968.00 77.7549
969.00 77.7271
970.00 77.4668
971.00 77.3926
972.00 77.7253
973.00 77.1492
974.00 76.1091
975.00 76.6700
976.00 76.6738
977.00 76.1460
978.00 76.5737
979.00 75.8155
980.00 75.9343
981.00 76.1530
982.00 76.2807
983.00 75.9102
984.00 75.7387
985.00 75.7579
986.00 75.1501
987.00 74.8451
988.00 75.1397
989.00 73.9402
990.00 74.5173
991.00 74.6945
992.00 74.6098
993.00 74.1307
994.00 74.1458
995.00 73.7902
996.00 73.8333
997.00 73.8478
998.00 73.4985
999.00 73.1964
1000.0 72.8416
1001.0 73.0933
1002.0 72.7924
1003.0 72.2378
1004.0 70.6002
1005.0 66.5413
1006.0 69.0569
1007.0 70.6259
1008.0 71.7303
1009.0 71.6487
1010.0 71.7941
1011.0 71.6465
1012.0 71.2967
1013.0 71.0420
1014.0 71.1446
1015.0 70.2085
1016.0 70.7451
1017.0 70.7661
1018.0 70.7444
1019.0 70.5292
1020.0 70.0969
1021.0 70.2364
1022.0 68.9471
1023.0 69.6883
1024.0 69.7887
1025.0 69.5931
1026.0 69.4388
1027.0 69.3359
1028.0 69.1774
1029.0 68.6315
1030.0 68.6922
1031.0 68.6381
1032.0 68.5671
1033.0 67.2878
1034.0 67.6751
1035.0 67.1155
1036.0 67.9183
1037.0 67.0736
1038.0 66.9107
1039.0 67.5107
1040.0 66.8745
1041.0 67.0253
1042.0 67.0251
1043.0 66.7282
1044.0 66.7131
1045.0 66.3664
1046.0 64.6812
1047.0 65.7914
1048.0 66.2045
1049.0 66.0919
1050.0 65.8848
1051.0 65.7750
1052.0 65.5814
1053.0 65.1972
1054.0 64.9204
1055.0 65.2376
1056.0 65.0443
1057.0 65.1034
1058.0 64.1976
1059.0 62.4092
1060.0 64.0535
1061.0 63.2022
1062.0 64.1510
1063.0 63.4610
1064.0 63.9387
1065.0 63.8580
1066.0 62.5996
1067.0 62.9066
1068.0 62.7840
1069.0 59.3466
1070.0 61.1868
1071.0 62.2698
1072.0 62.8685
1073.0 60.4427
1074.0 62.3590
1075.0 60.5236
1076.0 61.7621
1077.0 62.3251
1078.0 61.7361
1079.0 59.5657
1080.0 61.7102
1081.0 60.1670
1082.0 60.1978
1083.0 58.0785
1084.0 60.3542
1085.0 60.1555
1086.0 60.9135
1087.0 57.3242
1088.0 59.4096
1089.0 59.1582
1090.0 60.1895
1091.0 60.1420
1092.0 59.1972
1093.0 58.6964
1094.0 54.4541
1095.0 57.5687
1096.0 57.5960
1097.0 57.5431
1098.0 57.3895
1099.0 58.0183
1100.0 58.7692
1101.0 58.5225
1102.0 56.7247
1103.0 58.1919
1104.0 58.2025
1105.0 58.1739
1106.0 58.1278
1107.0 58.1206
1108.0 57.9889
1109.0 57.8499
1110.0 57.8266
1111.0 57.6748
1112.0 57.0489
1113.0 56.9437
1114.0 57.3265
1115.0 56.8109
1116.0 56.9384
1117.0 57.2329
1118.0 56.9291
1119.0 55.7299
1120.0 55.9263
1121.0 56.3980
1122.0 56.6011
1123.0 56.3403
1124.0 56.1451
1125.0 55.5138
1126.0 54.8198
1127.0 56.1419
1128.0 55.8007
1129.0 55.0485
1130.0 54.9060
1131.0 55.1836
1132.0 55.2439
1133.0 55.0214
1134.0 55.0115
1135.0 54.9904
1136.0 54.6399
1137.0 54.9432
1138.0 54.0170
1139.0 53.6643
1140.0 53.7253
1141.0 52.8495
1142.0 53.5609
1143.0 54.0527
1144.0 53.8041
1145.0 53.7538
1146.0 53.9525
1147.0 53.7682
1148.0 53.6968
1149.0 53.0109
1150.0 53.4505
1151.0 53.1670
1152.0 53.3153
1153.0 53.2613
1154.0 53.2278
1155.0 53.1570
1156.0 53.1354
1157.0 52.9005
1158.0 52.7520
1159.0 51.7788
1160.0 51.3997
1161.0 50.6679
1162.0 51.5617
1163.0 51.7804
1164.0 51.1967
1165.0 51.6371
1166.0 51.0068
1167.0 51.3031
1168.0 51.5787
1169.0 50.8837
1170.0 50.9949
1171.0 51.5368
1172.0 51.5104
1173.0 51.4455
1174.0 51.3170
1175.0 50.0907
1176.0 49.5461
1177.0 50.5958
1178.0 49.9667
1179.0 50.3471
1180.0 50.5353
1181.0 50.5809
1182.0 50.3409
1183.0 46.2413
1184.0 48.5402
1185.0 49.8315
1186.0 50.0765
1187.0 49.8567
1188.0 49.2299
1189.0 48.1897
1190.0 48.8878
1191.0 49.6998
1192.0 49.6702
1193.0 49.4605
1194.0 49.4684
1195.0 48.8917
1196.0 49.0491
1197.0 48.8001
1198.0 47.5220
1199.0 45.4272
1200.0 47.9070
1201.0 48.5698
1202.0 48.7584
1203.0 46.7904
1204.0 46.6140
1205.0 48.3142
1206.0 48.2853
1207.0 48.3473
1208.0 47.3230
1209.0 46.0417
1210.0 47.4787
1211.0 46.2731
1212.0 47.5074
1213.0 47.6702
1214.0 47.3038
1215.0 47.6166
1216.0 47.5402
1217.0 47.3293
1218.0 46.9361
1219.0 46.8777
1220.0 46.9271
1221.0 47.0168
1222.0 46.8173
1223.0 46.5280
1224.0 46.7519
1225.0 46.6652
1226.0 46.5735
1227.0 45.5064
1228.0 45.8442
1229.0 46.1692
1230.0 45.9556
1231.0 46.1737
1232.0 45.9300
1233.0 45.9954
1234.0 45.7277
1235.0 45.6700
1236.0 45.7181
1237.0 45.6977
1238.0 45.6782
1239.0 45.2472
1240.0 44.8248
1241.0 45.2270
1242.0 44.9283
1243.0 44.5559
1244.0 44.2971
1245.0 44.9621
1246.0 44.6969
1247.0 44.8215
1248.0 44.6687
1249.0 44.6602
1250.0 44.5862
1251.0 44.5478
1252.0 44.3046
1253.0 44.1023
1254.0 44.3300
1255.0 44.1015
1256.0 43.8221
1257.0 43.7198
1258.0 43.7340
1259.0 43.4133
1260.0 43.6849
1261.0 43.4955
1262.0 42.9813
1263.0 43.2491
1264.0 42.9398
1265.0 43.0618
1266.0 43.2182
1267.0 43.2215
1268.0 42.5725
1269.0 42.8979
1270.0 43.0953
1271.0 43.0598
1272.0 42.9611
1273.0 42.8547
1274.0 42.5437
1275.0 42.5535
1276.0 42.5200
1277.0 42.3627
1278.0 42.2018
1279.0 41.8707
1280.0 41.4545
1281.0 40.1567
1282.0 36.1933
1283.0 39.1122
1284.0 40.8853
1285.0 41.2632
1286.0 41.5487
1287.0 41.5550
1288.0 41.3577
1289.0 41.4447
1290.0 40.7814
1291.0 41.1185
1292.0 41.3320
1293.0 41.3234
1294.0 41.1077
1295.0 41.2288
1296.0 41.1997
1297.0 41.0789
1298.0 40.5543
1299.0 40.9765
1300.0 40.9066
1301.0 40.7031
1302.0 40.7542
1303.0 40.3160
1304.0 40.2220
1305.0 40.4342
1306.0 40.3854
1307.0 40.3514
1308.0 40.3101
1309.0 40.1969
1310.0 39.8934
1311.0 39.7615
1312.0 39.6176
1313.0 38.6194
1314.0 39.6679
1315.0 38.7594
1316.0 38.9656
1317.0 39.5380
1318.0 38.5145
1319.0 39.5007
1320.0 39.3971
1321.0 39.3591
1322.0 39.2886
1323.0 39.2821
1324.0 39.2365
1325.0 39.1007
1326.0 38.9737
1327.0 38.9242
1328.0 38.7690
1329.0 37.6041
1330.0 38.2706
1331.0 38.3554
1332.0 37.9328
1333.0 37.8240
1334.0 38.5238
1335.0 38.3113
1336.0 38.1708
1337.0 38.3430
1338.0 38.2450
1339.0 37.7666
1340.0 37.7725
1341.0 38.0493
1342.0 37.8066
1343.0 37.6982
1344.0 37.6158
1345.0 37.7744
1346.0 37.6905
1347.0 37.6518
1348.0 37.5926
1349.0 37.4556
1350.0 36.8741
1351.0 36.8983
1352.0 37.3093
1353.0 37.2333
1354.0 37.1921
1355.0 37.1032
1356.0 36.9288
1357.0 36.3732
1358.0 36.9088
1359.0 36.8626
1360.0 36.7297
1361.0 36.6916
1362.0 36.6421
1363.0 35.9767
1364.0 36.4448
1365.0 36.4733
1366.0 36.3523
1367.0 36.0044
1368.0 36.2470
1369.0 36.1447
1370.0 35.8211
1371.0 35.8096
1372.0 35.7107
1373.0 35.8439
1374.0 35.8653
1375.0 35.7175
1376.0 35.7615
1377.0 35.6817
1378.0 35.4812
1379.0 35.5349
1380.0 35.4989
1381.0 35.4848
1382.0 35.4251
1383.0 35.3657
1384.0 35.2911
1385.0 35.2134
1386.0 35.1197
1387.0 34.6995
1388.0 34.9089
1389.0 34.8710
1390.0 34.5257
1391.0 34.8170
1392.0 34.8356
1393.0 34.7820
1394.0 34.6377
1395.0 34.6166
1396.0 34.5139
1397.0 34.2655
1398.0 34.3939
1399.0 34.3960
1400.0 34.1451
1401.0 33.8408
1402.0 34.1728
1403.0 34.0420
1404.0 34.0401
1405.0 34.0728
1406.0 33.8437
1407.0 33.8329
1408.0 33.5394
1409.0 33.7555
1410.0 33.7090
1411.0 33.6141
1412.0 33.2806
1413.0 33.0400
1414.0 33.4932
1415.0 33.5523
1416.0 33.4545
1417.0 33.1981
1418.0 33.2783
1419.0 33.2599
1420.0 33.2301
1421.0 32.9681
1422.0 32.8335
1423.0 32.4197
1424.0 32.5398
1425.0 32.7137
1426.0 32.6589
1427.0 32.8508
1428.0 32.6681
1429.0 31.8215
1430.0 32.0829
1431.0 32.3931
1432.0 32.5204
1433.0 32.4231
1434.0 32.2985
1435.0 32.4193
1436.0 32.1316
1437.0 32.1259
1438.0 32.3137
1439.0 32.1574
1440.0 30.9022
1441.0 31.0338
1442.0 31.6037
1443.0 31.4298
1444.0 31.3725
1445.0 31.3361
1446.0 31.6879
1447.0 31.5352
1448.0 31.5512
1449.0 31.4650
1450.0 31.4136
1451.0 31.2346
1452.0 30.7538
1453.0 31.2740
1454.0 31.0866
1455.0 30.3140
1456.0 30.3903
1457.0 30.7020
1458.0 31.1794
1459.0 31.0775
1460.0 30.8954
1461.0 31.0020
1462.0 30.6877
1463.0 30.9398
1464.0 30.7159
1465.0 30.5513
1466.0 30.1676
1467.0 30.8261
1468.0 30.5945
1469.0 30.5991
1470.0 30.4554
1471.0 30.2621
1472.0 30.3723
1473.0 30.3873
1474.0 30.2141
1475.0 29.9804
1476.0 30.1974
1477.0 30.0659
1478.0 29.7437
1479.0 29.8907
1480.0 30.2087
1481.0 29.9749
1482.0 29.9296
1483.0 29.2812
1484.0 29.6242
1485.0 29.6997
1486.0 29.6524
1487.0 29.0699
1488.0 25.6995
1489.0 28.5676
1490.0 29.3584
1491.0 29.3719
1492.0 29.5487
1493.0 29.6015
1494.0 29.2276
1495.0 29.1930
1496.0 28.6936
1497.0 29.2001
1498.0 29.1988
1499.0 28.9591
